
 ------------------------------------------------------------
     resonance       Raman Scattering Plot
 ------------------------------------------------------------
 Excitation wavelength  514.50 nm
 Convolution lineshape is lorentzian  
 FWHM   20.00  1/cm
 ------------------------------------------------------------
 ------------------------------------------------------------
 # of frequencies :     3
 ------------------------------------------------------------
#  freq [ 1/cm]  S-tot [a.u.]S-real [a.u.]  S-imag [a.u.]
 ------------------------------------------------------------
   1  1591.57        7.9844        7.9838        0.0006
   2  3680.15       83.8935       83.8717        0.0218
   3  3783.77       40.8708       40.8610        0.0098
 ------------------------------------------------------------
  1533.88    0.2768E-03    0.2767E-03    0.2033E-07
  1536.19    0.2996E-03    0.2996E-03    0.2200E-07
  1538.51    0.3253E-03    0.3253E-03    0.2387E-07
  1540.82    0.3544E-03    0.3544E-03    0.2600E-07
  1543.14    0.3876E-03    0.3876E-03    0.2842E-07
  1545.45    0.4257E-03    0.4256E-03    0.3120E-07
  1547.77    0.4695E-03    0.4694E-03    0.3439E-07
  1550.08    0.5203E-03    0.5202E-03    0.3810E-07
  1552.40    0.5796E-03    0.5796E-03    0.4243E-07
  1554.71    0.6495E-03    0.6494E-03    0.4752E-07
  1557.02    0.7323E-03    0.7323E-03    0.5357E-07
  1559.34    0.8316E-03    0.8316E-03    0.6081E-07
  1561.65    0.9518E-03    0.9517E-03    0.6957E-07
  1563.97    0.1099E-02    0.1099E-02    0.8029E-07
  1566.28    0.1280E-02    0.1280E-02    0.9355E-07
  1568.60    0.1508E-02    0.1508E-02    0.1102E-06
  1570.91    0.1797E-02    0.1797E-02    0.1312E-06
  1573.23    0.2169E-02    0.2169E-02    0.1583E-06
  1575.54    0.2652E-02    0.2652E-02    0.1936E-06
  1577.86    0.3286E-02    0.3285E-02    0.2398E-06
  1580.17    0.4116E-02    0.4116E-02    0.3004E-06
  1582.48    0.5185E-02    0.5185E-02    0.3783E-06
  1584.80    0.6489E-02    0.6489E-02    0.4735E-06
  1587.11    0.7895E-02    0.7895E-02    0.5760E-06
  1589.43    0.9047E-02    0.9046E-02    0.6600E-06
  1591.74    0.9457E-02    0.9456E-02    0.6899E-06
  1594.06    0.8907E-02    0.8906E-02    0.6498E-06
  1596.37    0.7685E-02    0.7684E-02    0.5607E-06
  1598.69    0.6277E-02    0.6277E-02    0.4580E-06
  1601.00    0.5005E-02    0.5004E-02    0.3652E-06
  1603.32    0.3974E-02    0.3974E-02    0.2900E-06
  1605.63    0.3177E-02    0.3177E-02    0.2319E-06
  1607.94    0.2569E-02    0.2569E-02    0.1876E-06
  1610.26    0.2105E-02    0.2105E-02    0.1537E-06
  1612.57    0.1748E-02    0.1748E-02    0.1277E-06
  1614.89    0.1470E-02    0.1470E-02    0.1074E-06
  1617.20    0.1250E-02    0.1250E-02    0.9133E-07
  1619.52    0.1074E-02    0.1074E-02    0.7851E-07
  1621.83    0.9318E-03    0.9318E-03    0.6813E-07
  1624.15    0.8152E-03    0.8152E-03    0.5962E-07
  1626.46    0.7187E-03    0.7187E-03    0.5258E-07
  1628.78    0.6380E-03    0.6380E-03    0.4670E-07
  1631.09    0.5699E-03    0.5699E-03    0.4173E-07
  1633.40    0.5120E-03    0.5120E-03    0.3751E-07
  1635.72    0.4624E-03    0.4624E-03    0.3389E-07
  1638.03    0.4196E-03    0.4195E-03    0.3076E-07
  1640.35    0.3823E-03    0.3823E-03    0.2805E-07
  1642.66    0.3498E-03    0.3498E-03    0.2568E-07
  1644.98    0.3212E-03    0.3212E-03    0.2359E-07
  1647.29    0.2960E-03    0.2960E-03    0.2175E-07
  1649.61    0.2736E-03    0.2736E-03    0.2012E-07
  1651.92    0.2536E-03    0.2536E-03    0.1866E-07
  1654.23    0.2358E-03    0.2357E-03    0.1736E-07
  1656.55    0.2197E-03    0.2197E-03    0.1619E-07
  1658.86    0.2052E-03    0.2052E-03    0.1513E-07
  1661.18    0.1922E-03    0.1921E-03    0.1418E-07
  1663.49    0.1803E-03    0.1803E-03    0.1331E-07
  1665.81    0.1695E-03    0.1694E-03    0.1253E-07
  1668.12    0.1596E-03    0.1596E-03    0.1181E-07
  1670.44    0.1506E-03    0.1506E-03    0.1115E-07
  1672.75    0.1423E-03    0.1423E-03    0.1054E-07
  1675.07    0.1347E-03    0.1347E-03    0.9989E-08
  1677.38    0.1276E-03    0.1276E-03    0.9477E-08
  1679.69    0.1212E-03    0.1212E-03    0.9005E-08
  1682.01    0.1152E-03    0.1152E-03    0.8568E-08
  1684.32    0.1096E-03    0.1096E-03    0.8162E-08
  1686.64    0.1044E-03    0.1044E-03    0.7786E-08
  1688.95    0.9962E-04    0.9962E-04    0.7435E-08
  1691.27    0.9514E-04    0.9514E-04    0.7109E-08
  1693.58    0.9096E-04    0.9095E-04    0.6804E-08
  1695.90    0.8705E-04    0.8704E-04    0.6519E-08
  1698.21    0.8338E-04    0.8338E-04    0.6252E-08
  1700.53    0.7995E-04    0.7994E-04    0.6002E-08
  1702.84    0.7673E-04    0.7672E-04    0.5768E-08
  1705.15    0.7369E-04    0.7369E-04    0.5547E-08
  1707.47    0.7084E-04    0.7084E-04    0.5339E-08
  1709.78    0.6815E-04    0.6815E-04    0.5144E-08
  1712.10    0.6562E-04    0.6561E-04    0.4959E-08
  1714.41    0.6322E-04    0.6322E-04    0.4785E-08
  1716.73    0.6096E-04    0.6095E-04    0.4620E-08
  1719.04    0.5881E-04    0.5881E-04    0.4464E-08
  1721.36    0.5678E-04    0.5678E-04    0.4316E-08
  1723.67    0.5486E-04    0.5485E-04    0.4176E-08
  1725.98    0.5303E-04    0.5303E-04    0.4043E-08
  1728.30    0.5129E-04    0.5129E-04    0.3917E-08
  1730.61    0.4964E-04    0.4964E-04    0.3797E-08
  1732.93    0.4807E-04    0.4807E-04    0.3683E-08
  1735.24    0.4658E-04    0.4657E-04    0.3574E-08
  1737.56    0.4515E-04    0.4515E-04    0.3471E-08
  1739.87    0.4379E-04    0.4379E-04    0.3372E-08
  1742.19    0.4249E-04    0.4249E-04    0.3278E-08
  1744.50    0.4126E-04    0.4125E-04    0.3188E-08
  1746.82    0.4007E-04    0.4007E-04    0.3102E-08
  1749.13    0.3894E-04    0.3893E-04    0.3020E-08
  1751.44    0.3785E-04    0.3785E-04    0.2941E-08
  1753.76    0.3682E-04    0.3681E-04    0.2866E-08
  1756.07    0.3582E-04    0.3582E-04    0.2793E-08
  1758.39    0.3487E-04    0.3486E-04    0.2724E-08
  1760.70    0.3395E-04    0.3395E-04    0.2658E-08
  1763.02    0.3307E-04    0.3307E-04    0.2594E-08
  1765.33    0.3223E-04    0.3223E-04    0.2533E-08
  1767.65    0.3142E-04    0.3142E-04    0.2475E-08
  1769.96    0.3064E-04    0.3064E-04    0.2418E-08
  1772.28    0.2989E-04    0.2989E-04    0.2364E-08
  1774.59    0.2917E-04    0.2917E-04    0.2312E-08
  1776.90    0.2848E-04    0.2847E-04    0.2262E-08
  1779.22    0.2781E-04    0.2781E-04    0.2213E-08
  1781.53    0.2716E-04    0.2716E-04    0.2167E-08
  1783.85    0.2654E-04    0.2654E-04    0.2122E-08
  1786.16    0.2594E-04    0.2594E-04    0.2079E-08
  1788.48    0.2536E-04    0.2536E-04    0.2037E-08
  1790.79    0.2481E-04    0.2480E-04    0.1997E-08
  1793.11    0.2427E-04    0.2427E-04    0.1958E-08
  1795.42    0.2375E-04    0.2374E-04    0.1920E-08
  1797.73    0.2324E-04    0.2324E-04    0.1884E-08
  1800.05    0.2276E-04    0.2275E-04    0.1849E-08
  1802.36    0.2229E-04    0.2228E-04    0.1815E-08
  1804.68    0.2183E-04    0.2183E-04    0.1782E-08
  1806.99    0.2139E-04    0.2139E-04    0.1751E-08
  1809.31    0.2096E-04    0.2096E-04    0.1720E-08
  1811.62    0.2055E-04    0.2055E-04    0.1690E-08
  1813.94    0.2015E-04    0.2015E-04    0.1662E-08
  1816.25    0.1976E-04    0.1976E-04    0.1634E-08
  1818.57    0.1939E-04    0.1938E-04    0.1607E-08
  1820.88    0.1902E-04    0.1902E-04    0.1581E-08
  1823.19    0.1867E-04    0.1867E-04    0.1555E-08
  1825.51    0.1832E-04    0.1832E-04    0.1531E-08
  1827.82    0.1799E-04    0.1799E-04    0.1507E-08
  1830.14    0.1767E-04    0.1767E-04    0.1484E-08
  1832.45    0.1735E-04    0.1735E-04    0.1461E-08
  1834.77    0.1705E-04    0.1705E-04    0.1440E-08
  1837.08    0.1675E-04    0.1675E-04    0.1419E-08
  1839.40    0.1646E-04    0.1646E-04    0.1398E-08
  1841.71    0.1618E-04    0.1618E-04    0.1378E-08
  1844.03    0.1591E-04    0.1591E-04    0.1359E-08
  1846.34    0.1565E-04    0.1565E-04    0.1340E-08
  1848.65    0.1539E-04    0.1539E-04    0.1322E-08
  1850.97    0.1514E-04    0.1514E-04    0.1304E-08
  1853.28    0.1489E-04    0.1489E-04    0.1287E-08
  1855.60    0.1466E-04    0.1466E-04    0.1270E-08
  1857.91    0.1443E-04    0.1442E-04    0.1253E-08
  1860.23    0.1420E-04    0.1420E-04    0.1237E-08
  1862.54    0.1398E-04    0.1398E-04    0.1222E-08
  1864.86    0.1377E-04    0.1377E-04    0.1207E-08
  1867.17    0.1356E-04    0.1356E-04    0.1192E-08
  1869.49    0.1336E-04    0.1335E-04    0.1178E-08
  1871.80    0.1316E-04    0.1316E-04    0.1164E-08
  1874.11    0.1296E-04    0.1296E-04    0.1150E-08
  1876.43    0.1278E-04    0.1277E-04    0.1137E-08
  1878.74    0.1259E-04    0.1259E-04    0.1124E-08
  1881.06    0.1241E-04    0.1241E-04    0.1112E-08
  1883.37    0.1224E-04    0.1224E-04    0.1099E-08
  1885.69    0.1207E-04    0.1207E-04    0.1087E-08
  1888.00    0.1190E-04    0.1190E-04    0.1076E-08
  1890.32    0.1174E-04    0.1174E-04    0.1064E-08
  1892.63    0.1158E-04    0.1158E-04    0.1053E-08
  1894.94    0.1142E-04    0.1142E-04    0.1043E-08
  1897.26    0.1127E-04    0.1127E-04    0.1032E-08
  1899.57    0.1112E-04    0.1112E-04    0.1022E-08
  1901.89    0.1098E-04    0.1098E-04    0.1012E-08
  1904.20    0.1084E-04    0.1084E-04    0.1002E-08
  1906.52    0.1070E-04    0.1070E-04    0.9924E-09
  1908.83    0.1056E-04    0.1056E-04    0.9831E-09
  1911.15    0.1043E-04    0.1043E-04    0.9740E-09
  1913.46    0.1030E-04    0.1030E-04    0.9651E-09
  1915.78    0.1017E-04    0.1017E-04    0.9564E-09
  1918.09    0.1005E-04    0.1005E-04    0.9479E-09
  1920.40    0.9929E-05    0.9928E-05    0.9396E-09
  1922.72    0.9811E-05    0.9810E-05    0.9316E-09
  1925.03    0.9695E-05    0.9694E-05    0.9237E-09
  1927.35    0.9581E-05    0.9580E-05    0.9159E-09
  1929.66    0.9470E-05    0.9469E-05    0.9084E-09
  1931.98    0.9361E-05    0.9360E-05    0.9010E-09
  1934.29    0.9255E-05    0.9254E-05    0.8938E-09
  1936.61    0.9150E-05    0.9150E-05    0.8868E-09
  1938.92    0.9048E-05    0.9047E-05    0.8799E-09
  1941.24    0.8948E-05    0.8947E-05    0.8732E-09
  1943.55    0.8850E-05    0.8849E-05    0.8666E-09
  1945.86    0.8754E-05    0.8753E-05    0.8602E-09
  1948.18    0.8660E-05    0.8659E-05    0.8539E-09
  1950.49    0.8568E-05    0.8567E-05    0.8478E-09
  1952.81    0.8477E-05    0.8477E-05    0.8418E-09
  1955.12    0.8389E-05    0.8388E-05    0.8359E-09
  1957.44    0.8302E-05    0.8301E-05    0.8302E-09
  1959.75    0.8217E-05    0.8216E-05    0.8245E-09
  1962.07    0.8133E-05    0.8132E-05    0.8190E-09
  1964.38    0.8051E-05    0.8051E-05    0.8137E-09
  1966.69    0.7971E-05    0.7970E-05    0.8084E-09
  1969.01    0.7892E-05    0.7892E-05    0.8033E-09
  1971.32    0.7815E-05    0.7814E-05    0.7983E-09
  1973.64    0.7739E-05    0.7739E-05    0.7933E-09
  1975.95    0.7665E-05    0.7664E-05    0.7885E-09
  1978.27    0.7592E-05    0.7591E-05    0.7838E-09
  1980.58    0.7521E-05    0.7520E-05    0.7792E-09
  1982.90    0.7451E-05    0.7450E-05    0.7747E-09
  1985.21    0.7382E-05    0.7381E-05    0.7703E-09
  1987.53    0.7314E-05    0.7313E-05    0.7660E-09
  1989.84    0.7248E-05    0.7247E-05    0.7618E-09
  1992.15    0.7183E-05    0.7182E-05    0.7577E-09
  1994.47    0.7119E-05    0.7118E-05    0.7537E-09
  1996.78    0.7056E-05    0.7055E-05    0.7497E-09
  1999.10    0.6994E-05    0.6993E-05    0.7459E-09
  2001.41    0.6934E-05    0.6933E-05    0.7421E-09
  2003.73    0.6874E-05    0.6873E-05    0.7384E-09
  2006.04    0.6816E-05    0.6815E-05    0.7348E-09
  2008.36    0.6758E-05    0.6758E-05    0.7312E-09
  2010.67    0.6702E-05    0.6701E-05    0.7278E-09
  2012.99    0.6647E-05    0.6646E-05    0.7244E-09
  2015.30    0.6592E-05    0.6592E-05    0.7211E-09
  2017.61    0.6539E-05    0.6538E-05    0.7179E-09
  2019.93    0.6487E-05    0.6486E-05    0.7147E-09
  2022.24    0.6435E-05    0.6434E-05    0.7116E-09
  2024.56    0.6384E-05    0.6384E-05    0.7086E-09
  2026.87    0.6335E-05    0.6334E-05    0.7056E-09
  2029.19    0.6286E-05    0.6285E-05    0.7027E-09
  2031.50    0.6238E-05    0.6237E-05    0.6999E-09
  2033.82    0.6191E-05    0.6190E-05    0.6971E-09
  2036.13    0.6144E-05    0.6143E-05    0.6944E-09
  2038.44    0.6098E-05    0.6098E-05    0.6918E-09
  2040.76    0.6054E-05    0.6053E-05    0.6892E-09
  2043.07    0.6010E-05    0.6009E-05    0.6867E-09
  2045.39    0.5966E-05    0.5966E-05    0.6842E-09
  2047.70    0.5924E-05    0.5923E-05    0.6818E-09
  2050.02    0.5882E-05    0.5881E-05    0.6794E-09
  2052.33    0.5841E-05    0.5840E-05    0.6771E-09
  2054.65    0.5800E-05    0.5799E-05    0.6749E-09
  2056.96    0.5760E-05    0.5760E-05    0.6727E-09
  2059.28    0.5721E-05    0.5720E-05    0.6705E-09
  2061.59    0.5683E-05    0.5682E-05    0.6684E-09
  2063.90    0.5645E-05    0.5644E-05    0.6664E-09
  2066.22    0.5607E-05    0.5607E-05    0.6644E-09
  2068.53    0.5571E-05    0.5570E-05    0.6624E-09
  2070.85    0.5535E-05    0.5534E-05    0.6605E-09
  2073.16    0.5499E-05    0.5499E-05    0.6587E-09
  2075.48    0.5465E-05    0.5464E-05    0.6569E-09
  2077.79    0.5430E-05    0.5430E-05    0.6551E-09
  2080.11    0.5397E-05    0.5396E-05    0.6534E-09
  2082.42    0.5363E-05    0.5363E-05    0.6517E-09
  2084.74    0.5331E-05    0.5330E-05    0.6501E-09
  2087.05    0.5299E-05    0.5298E-05    0.6485E-09
  2089.36    0.5267E-05    0.5266E-05    0.6469E-09
  2091.68    0.5236E-05    0.5235E-05    0.6454E-09
  2093.99    0.5205E-05    0.5205E-05    0.6439E-09
  2096.31    0.5175E-05    0.5175E-05    0.6425E-09
  2098.62    0.5146E-05    0.5145E-05    0.6411E-09
  2100.94    0.5117E-05    0.5116E-05    0.6398E-09
  2103.25    0.5088E-05    0.5087E-05    0.6384E-09
  2105.57    0.5060E-05    0.5059E-05    0.6372E-09
  2107.88    0.5032E-05    0.5032E-05    0.6359E-09
  2110.20    0.5005E-05    0.5004E-05    0.6347E-09
  2112.51    0.4978E-05    0.4977E-05    0.6335E-09
  2114.82    0.4952E-05    0.4951E-05    0.6324E-09
  2117.14    0.4926E-05    0.4925E-05    0.6313E-09
  2119.45    0.4900E-05    0.4899E-05    0.6302E-09
  2121.77    0.4875E-05    0.4874E-05    0.6292E-09
  2124.08    0.4850E-05    0.4850E-05    0.6282E-09
  2126.40    0.4826E-05    0.4825E-05    0.6272E-09
  2128.71    0.4802E-05    0.4801E-05    0.6263E-09
  2131.03    0.4778E-05    0.4778E-05    0.6254E-09
  2133.34    0.4755E-05    0.4755E-05    0.6245E-09
  2135.65    0.4732E-05    0.4732E-05    0.6236E-09
  2137.97    0.4710E-05    0.4709E-05    0.6228E-09
  2140.28    0.4688E-05    0.4687E-05    0.6220E-09
  2142.60    0.4666E-05    0.4665E-05    0.6213E-09
  2144.91    0.4645E-05    0.4644E-05    0.6206E-09
  2147.23    0.4624E-05    0.4623E-05    0.6199E-09
  2149.54    0.4603E-05    0.4602E-05    0.6192E-09
  2151.86    0.4582E-05    0.4582E-05    0.6185E-09
  2154.17    0.4562E-05    0.4562E-05    0.6179E-09
  2156.49    0.4543E-05    0.4542E-05    0.6173E-09
  2158.80    0.4523E-05    0.4523E-05    0.6168E-09
  2161.11    0.4504E-05    0.4504E-05    0.6163E-09
  2163.43    0.4485E-05    0.4485E-05    0.6158E-09
  2165.74    0.4467E-05    0.4466E-05    0.6153E-09
  2168.06    0.4449E-05    0.4448E-05    0.6148E-09
  2170.37    0.4431E-05    0.4430E-05    0.6144E-09
  2172.69    0.4413E-05    0.4413E-05    0.6140E-09
  2175.00    0.4396E-05    0.4395E-05    0.6136E-09
  2177.32    0.4379E-05    0.4378E-05    0.6133E-09
  2179.63    0.4362E-05    0.4362E-05    0.6129E-09
  2181.95    0.4346E-05    0.4345E-05    0.6126E-09
  2184.26    0.4330E-05    0.4329E-05    0.6123E-09
  2186.57    0.4314E-05    0.4313E-05    0.6121E-09
  2188.89    0.4298E-05    0.4298E-05    0.6119E-09
  2191.20    0.4283E-05    0.4282E-05    0.6116E-09
  2193.52    0.4268E-05    0.4267E-05    0.6115E-09
  2195.83    0.4253E-05    0.4252E-05    0.6113E-09
  2198.15    0.4238E-05    0.4238E-05    0.6112E-09
  2200.46    0.4224E-05    0.4223E-05    0.6110E-09
  2202.78    0.4210E-05    0.4209E-05    0.6109E-09
  2205.09    0.4196E-05    0.4195E-05    0.6109E-09
  2207.40    0.4182E-05    0.4182E-05    0.6108E-09
  2209.72    0.4169E-05    0.4168E-05    0.6108E-09
  2212.03    0.4156E-05    0.4155E-05    0.6108E-09
  2214.35    0.4143E-05    0.4142E-05    0.6108E-09
  2216.66    0.4130E-05    0.4129E-05    0.6108E-09
  2218.98    0.4117E-05    0.4117E-05    0.6109E-09
  2221.29    0.4105E-05    0.4104E-05    0.6109E-09
  2223.61    0.4093E-05    0.4092E-05    0.6110E-09
  2225.92    0.4081E-05    0.4081E-05    0.6111E-09
  2228.24    0.4070E-05    0.4069E-05    0.6113E-09
  2230.55    0.4058E-05    0.4057E-05    0.6114E-09
  2232.86    0.4047E-05    0.4046E-05    0.6116E-09
  2235.18    0.4036E-05    0.4035E-05    0.6118E-09
  2237.49    0.4025E-05    0.4024E-05    0.6120E-09
  2239.81    0.4014E-05    0.4014E-05    0.6122E-09
  2242.12    0.4004E-05    0.4003E-05    0.6125E-09
  2244.44    0.3994E-05    0.3993E-05    0.6128E-09
  2246.75    0.3984E-05    0.3983E-05    0.6131E-09
  2249.07    0.3974E-05    0.3973E-05    0.6134E-09
  2251.38    0.3964E-05    0.3964E-05    0.6137E-09
  2253.70    0.3955E-05    0.3954E-05    0.6140E-09
  2256.01    0.3946E-05    0.3945E-05    0.6144E-09
  2258.32    0.3937E-05    0.3936E-05    0.6148E-09
  2260.64    0.3928E-05    0.3927E-05    0.6152E-09
  2262.95    0.3919E-05    0.3918E-05    0.6156E-09
  2265.27    0.3910E-05    0.3910E-05    0.6160E-09
  2267.58    0.3902E-05    0.3901E-05    0.6165E-09
  2269.90    0.3894E-05    0.3893E-05    0.6170E-09
  2272.21    0.3886E-05    0.3885E-05    0.6175E-09
  2274.53    0.3878E-05    0.3877E-05    0.6180E-09
  2276.84    0.3870E-05    0.3870E-05    0.6185E-09
  2279.15    0.3863E-05    0.3862E-05    0.6190E-09
  2281.47    0.3855E-05    0.3855E-05    0.6196E-09
  2283.78    0.3848E-05    0.3848E-05    0.6202E-09
  2286.10    0.3841E-05    0.3841E-05    0.6208E-09
  2288.41    0.3834E-05    0.3834E-05    0.6214E-09
  2290.73    0.3828E-05    0.3827E-05    0.6220E-09
  2293.04    0.3821E-05    0.3821E-05    0.6227E-09
  2295.36    0.3815E-05    0.3814E-05    0.6233E-09
  2297.67    0.3809E-05    0.3808E-05    0.6240E-09
  2299.99    0.3802E-05    0.3802E-05    0.6247E-09
  2302.30    0.3797E-05    0.3796E-05    0.6254E-09
  2304.61    0.3791E-05    0.3790E-05    0.6262E-09
  2306.93    0.3785E-05    0.3784E-05    0.6269E-09
  2309.24    0.3780E-05    0.3779E-05    0.6277E-09
  2311.56    0.3774E-05    0.3774E-05    0.6284E-09
  2313.87    0.3769E-05    0.3768E-05    0.6292E-09
  2316.19    0.3764E-05    0.3763E-05    0.6301E-09
  2318.50    0.3759E-05    0.3758E-05    0.6309E-09
  2320.82    0.3754E-05    0.3754E-05    0.6317E-09
  2323.13    0.3750E-05    0.3749E-05    0.6326E-09
  2325.45    0.3745E-05    0.3745E-05    0.6335E-09
  2327.76    0.3741E-05    0.3740E-05    0.6344E-09
  2330.07    0.3737E-05    0.3736E-05    0.6353E-09
  2332.39    0.3733E-05    0.3732E-05    0.6362E-09
  2334.70    0.3729E-05    0.3728E-05    0.6371E-09
  2337.02    0.3725E-05    0.3724E-05    0.6381E-09
  2339.33    0.3721E-05    0.3721E-05    0.6391E-09
  2341.65    0.3718E-05    0.3717E-05    0.6401E-09
  2343.96    0.3714E-05    0.3714E-05    0.6411E-09
  2346.28    0.3711E-05    0.3710E-05    0.6421E-09
  2348.59    0.3708E-05    0.3707E-05    0.6431E-09
  2350.91    0.3705E-05    0.3704E-05    0.6442E-09
  2353.22    0.3702E-05    0.3701E-05    0.6453E-09
  2355.53    0.3699E-05    0.3699E-05    0.6463E-09
  2357.85    0.3697E-05    0.3696E-05    0.6474E-09
  2360.16    0.3694E-05    0.3693E-05    0.6486E-09
  2362.48    0.3692E-05    0.3691E-05    0.6497E-09
  2364.79    0.3689E-05    0.3689E-05    0.6508E-09
  2367.11    0.3687E-05    0.3687E-05    0.6520E-09
  2369.42    0.3685E-05    0.3685E-05    0.6532E-09
  2371.74    0.3683E-05    0.3683E-05    0.6544E-09
  2374.05    0.3682E-05    0.3681E-05    0.6556E-09
  2376.36    0.3680E-05    0.3679E-05    0.6568E-09
  2378.68    0.3678E-05    0.3678E-05    0.6581E-09
  2380.99    0.3677E-05    0.3676E-05    0.6593E-09
  2383.31    0.3676E-05    0.3675E-05    0.6606E-09
  2385.62    0.3674E-05    0.3674E-05    0.6619E-09
  2387.94    0.3673E-05    0.3673E-05    0.6632E-09
  2390.25    0.3672E-05    0.3672E-05    0.6645E-09
  2392.57    0.3672E-05    0.3671E-05    0.6659E-09
  2394.88    0.3671E-05    0.3670E-05    0.6672E-09
  2397.20    0.3670E-05    0.3670E-05    0.6686E-09
  2399.51    0.3670E-05    0.3669E-05    0.6700E-09
  2401.82    0.3669E-05    0.3669E-05    0.6714E-09
  2404.14    0.3669E-05    0.3668E-05    0.6728E-09
  2406.45    0.3669E-05    0.3668E-05    0.6742E-09
  2408.77    0.3669E-05    0.3668E-05    0.6757E-09
  2411.08    0.3669E-05    0.3668E-05    0.6771E-09
  2413.40    0.3669E-05    0.3668E-05    0.6786E-09
  2415.71    0.3669E-05    0.3669E-05    0.6801E-09
  2418.03    0.3670E-05    0.3669E-05    0.6816E-09
  2420.34    0.3670E-05    0.3670E-05    0.6832E-09
  2422.66    0.3671E-05    0.3670E-05    0.6847E-09
  2424.97    0.3672E-05    0.3671E-05    0.6863E-09
  2427.28    0.3672E-05    0.3672E-05    0.6878E-09
  2429.60    0.3673E-05    0.3673E-05    0.6894E-09
  2431.91    0.3674E-05    0.3674E-05    0.6910E-09
  2434.23    0.3676E-05    0.3675E-05    0.6927E-09
  2436.54    0.3677E-05    0.3676E-05    0.6943E-09
  2438.86    0.3678E-05    0.3677E-05    0.6960E-09
  2441.17    0.3680E-05    0.3679E-05    0.6976E-09
  2443.49    0.3681E-05    0.3680E-05    0.6993E-09
  2445.80    0.3683E-05    0.3682E-05    0.7010E-09
  2448.11    0.3685E-05    0.3684E-05    0.7028E-09
  2450.43    0.3687E-05    0.3686E-05    0.7045E-09
  2452.74    0.3689E-05    0.3688E-05    0.7063E-09
  2455.06    0.3691E-05    0.3690E-05    0.7080E-09
  2457.37    0.3693E-05    0.3692E-05    0.7098E-09
  2459.69    0.3695E-05    0.3694E-05    0.7116E-09
  2462.00    0.3698E-05    0.3697E-05    0.7135E-09
  2464.32    0.3700E-05    0.3699E-05    0.7153E-09
  2466.63    0.3703E-05    0.3702E-05    0.7172E-09
  2468.95    0.3705E-05    0.3705E-05    0.7190E-09
  2471.26    0.3708E-05    0.3708E-05    0.7209E-09
  2473.57    0.3711E-05    0.3710E-05    0.7228E-09
  2475.89    0.3714E-05    0.3713E-05    0.7248E-09
  2478.20    0.3717E-05    0.3717E-05    0.7267E-09
  2480.52    0.3721E-05    0.3720E-05    0.7287E-09
  2482.83    0.3724E-05    0.3723E-05    0.7306E-09
  2485.15    0.3727E-05    0.3727E-05    0.7326E-09
  2487.46    0.3731E-05    0.3730E-05    0.7346E-09
  2489.78    0.3735E-05    0.3734E-05    0.7367E-09
  2492.09    0.3738E-05    0.3738E-05    0.7387E-09
  2494.41    0.3742E-05    0.3741E-05    0.7408E-09
  2496.72    0.3746E-05    0.3745E-05    0.7429E-09
  2499.03    0.3750E-05    0.3749E-05    0.7450E-09
  2501.35    0.3754E-05    0.3754E-05    0.7471E-09
  2503.66    0.3759E-05    0.3758E-05    0.7492E-09
  2505.98    0.3763E-05    0.3762E-05    0.7514E-09
  2508.29    0.3767E-05    0.3767E-05    0.7535E-09
  2510.61    0.3772E-05    0.3771E-05    0.7557E-09
  2512.92    0.3777E-05    0.3776E-05    0.7579E-09
  2515.24    0.3781E-05    0.3781E-05    0.7602E-09
  2517.55    0.3786E-05    0.3786E-05    0.7624E-09
  2519.86    0.3791E-05    0.3790E-05    0.7647E-09
  2522.18    0.3796E-05    0.3796E-05    0.7670E-09
  2524.49    0.3802E-05    0.3801E-05    0.7693E-09
  2526.81    0.3807E-05    0.3806E-05    0.7716E-09
  2529.12    0.3812E-05    0.3811E-05    0.7739E-09
  2531.44    0.3818E-05    0.3817E-05    0.7763E-09
  2533.75    0.3823E-05    0.3822E-05    0.7787E-09
  2536.07    0.3829E-05    0.3828E-05    0.7810E-09
  2538.38    0.3835E-05    0.3834E-05    0.7835E-09
  2540.70    0.3841E-05    0.3840E-05    0.7859E-09
  2543.01    0.3847E-05    0.3846E-05    0.7884E-09
  2545.32    0.3853E-05    0.3852E-05    0.7908E-09
  2547.64    0.3859E-05    0.3858E-05    0.7933E-09
  2549.95    0.3865E-05    0.3865E-05    0.7958E-09
  2552.27    0.3872E-05    0.3871E-05    0.7984E-09
  2554.58    0.3878E-05    0.3877E-05    0.8009E-09
  2556.90    0.3885E-05    0.3884E-05    0.8035E-09
  2559.21    0.3892E-05    0.3891E-05    0.8061E-09
  2561.53    0.3898E-05    0.3898E-05    0.8087E-09
  2563.84    0.3905E-05    0.3905E-05    0.8113E-09
  2566.16    0.3912E-05    0.3912E-05    0.8140E-09
  2568.47    0.3920E-05    0.3919E-05    0.8167E-09
  2570.78    0.3927E-05    0.3926E-05    0.8194E-09
  2573.10    0.3934E-05    0.3933E-05    0.8221E-09
  2575.41    0.3942E-05    0.3941E-05    0.8248E-09
  2577.73    0.3949E-05    0.3948E-05    0.8276E-09
  2580.04    0.3957E-05    0.3956E-05    0.8304E-09
  2582.36    0.3965E-05    0.3964E-05    0.8332E-09
  2584.67    0.3973E-05    0.3972E-05    0.8360E-09
  2586.99    0.3981E-05    0.3980E-05    0.8389E-09
  2589.30    0.3989E-05    0.3988E-05    0.8417E-09
  2591.61    0.3997E-05    0.3996E-05    0.8446E-09
  2593.93    0.4005E-05    0.4005E-05    0.8475E-09
  2596.24    0.4014E-05    0.4013E-05    0.8505E-09
  2598.56    0.4022E-05    0.4022E-05    0.8534E-09
  2600.87    0.4031E-05    0.4030E-05    0.8564E-09
  2603.19    0.4040E-05    0.4039E-05    0.8594E-09
  2605.50    0.4049E-05    0.4048E-05    0.8625E-09
  2607.82    0.4058E-05    0.4057E-05    0.8655E-09
  2610.13    0.4067E-05    0.4066E-05    0.8686E-09
  2612.45    0.4076E-05    0.4075E-05    0.8717E-09
  2614.76    0.4085E-05    0.4085E-05    0.8748E-09
  2617.07    0.4095E-05    0.4094E-05    0.8780E-09
  2619.39    0.4104E-05    0.4104E-05    0.8811E-09
  2621.70    0.4114E-05    0.4113E-05    0.8843E-09
  2624.02    0.4124E-05    0.4123E-05    0.8875E-09
  2626.33    0.4134E-05    0.4133E-05    0.8908E-09
  2628.65    0.4144E-05    0.4143E-05    0.8941E-09
  2630.96    0.4154E-05    0.4153E-05    0.8974E-09
  2633.28    0.4164E-05    0.4163E-05    0.9007E-09
  2635.59    0.4175E-05    0.4174E-05    0.9040E-09
  2637.91    0.4185E-05    0.4184E-05    0.9074E-09
  2640.22    0.4196E-05    0.4195E-05    0.9108E-09
  2642.53    0.4207E-05    0.4206E-05    0.9142E-09
  2644.85    0.4217E-05    0.4216E-05    0.9177E-09
  2647.16    0.4228E-05    0.4227E-05    0.9211E-09
  2649.48    0.4239E-05    0.4239E-05    0.9246E-09
  2651.79    0.4251E-05    0.4250E-05    0.9282E-09
  2654.11    0.4262E-05    0.4261E-05    0.9317E-09
  2656.42    0.4273E-05    0.4273E-05    0.9353E-09
  2658.74    0.4285E-05    0.4284E-05    0.9389E-09
  2661.05    0.4297E-05    0.4296E-05    0.9425E-09
  2663.37    0.4309E-05    0.4308E-05    0.9462E-09
  2665.68    0.4321E-05    0.4320E-05    0.9499E-09
  2667.99    0.4333E-05    0.4332E-05    0.9536E-09
  2670.31    0.4345E-05    0.4344E-05    0.9574E-09
  2672.62    0.4357E-05    0.4356E-05    0.9611E-09
  2674.94    0.4370E-05    0.4369E-05    0.9649E-09
  2677.25    0.4382E-05    0.4381E-05    0.9688E-09
  2679.57    0.4395E-05    0.4394E-05    0.9726E-09
  2681.88    0.4408E-05    0.4407E-05    0.9765E-09
  2684.20    0.4421E-05    0.4420E-05    0.9805E-09
  2686.51    0.4434E-05    0.4433E-05    0.9844E-09
  2688.82    0.4447E-05    0.4446E-05    0.9884E-09
  2691.14    0.4461E-05    0.4460E-05    0.9924E-09
  2693.45    0.4474E-05    0.4473E-05    0.9965E-09
  2695.77    0.4488E-05    0.4487E-05    0.1001E-08
  2698.08    0.4502E-05    0.4501E-05    0.1005E-08
  2700.40    0.4516E-05    0.4515E-05    0.1009E-08
  2702.71    0.4530E-05    0.4529E-05    0.1013E-08
  2705.03    0.4544E-05    0.4543E-05    0.1017E-08
  2707.34    0.4559E-05    0.4558E-05    0.1021E-08
  2709.66    0.4573E-05    0.4572E-05    0.1026E-08
  2711.97    0.4588E-05    0.4587E-05    0.1030E-08
  2714.28    0.4603E-05    0.4601E-05    0.1034E-08
  2716.60    0.4617E-05    0.4616E-05    0.1039E-08
  2718.91    0.4633E-05    0.4632E-05    0.1043E-08
  2721.23    0.4648E-05    0.4647E-05    0.1048E-08
  2723.54    0.4663E-05    0.4662E-05    0.1052E-08
  2725.86    0.4679E-05    0.4678E-05    0.1056E-08
  2728.17    0.4694E-05    0.4693E-05    0.1061E-08
  2730.49    0.4710E-05    0.4709E-05    0.1066E-08
  2732.80    0.4726E-05    0.4725E-05    0.1070E-08
  2735.12    0.4742E-05    0.4741E-05    0.1075E-08
  2737.43    0.4759E-05    0.4758E-05    0.1080E-08
  2739.74    0.4775E-05    0.4774E-05    0.1084E-08
  2742.06    0.4792E-05    0.4791E-05    0.1089E-08
  2744.37    0.4809E-05    0.4807E-05    0.1094E-08
  2746.69    0.4826E-05    0.4824E-05    0.1099E-08
  2749.00    0.4843E-05    0.4842E-05    0.1104E-08
  2751.32    0.4860E-05    0.4859E-05    0.1108E-08
  2753.63    0.4877E-05    0.4876E-05    0.1113E-08
  2755.95    0.4895E-05    0.4894E-05    0.1118E-08
  2758.26    0.4913E-05    0.4912E-05    0.1123E-08
  2760.57    0.4931E-05    0.4929E-05    0.1128E-08
  2762.89    0.4949E-05    0.4948E-05    0.1134E-08
  2765.20    0.4967E-05    0.4966E-05    0.1139E-08
  2767.52    0.4985E-05    0.4984E-05    0.1144E-08
  2769.83    0.5004E-05    0.5003E-05    0.1149E-08
  2772.15    0.5023E-05    0.5022E-05    0.1154E-08
  2774.46    0.5042E-05    0.5041E-05    0.1160E-08
  2776.78    0.5061E-05    0.5060E-05    0.1165E-08
  2779.09    0.5080E-05    0.5079E-05    0.1170E-08
  2781.41    0.5100E-05    0.5098E-05    0.1176E-08
  2783.72    0.5119E-05    0.5118E-05    0.1181E-08
  2786.03    0.5139E-05    0.5138E-05    0.1187E-08
  2788.35    0.5159E-05    0.5158E-05    0.1193E-08
  2790.66    0.5179E-05    0.5178E-05    0.1198E-08
  2792.98    0.5200E-05    0.5199E-05    0.1204E-08
  2795.29    0.5220E-05    0.5219E-05    0.1209E-08
  2797.61    0.5241E-05    0.5240E-05    0.1215E-08
  2799.92    0.5262E-05    0.5261E-05    0.1221E-08
  2802.24    0.5283E-05    0.5282E-05    0.1227E-08
  2804.55    0.5305E-05    0.5304E-05    0.1233E-08
  2806.87    0.5326E-05    0.5325E-05    0.1239E-08
  2809.18    0.5348E-05    0.5347E-05    0.1245E-08
  2811.49    0.5370E-05    0.5369E-05    0.1251E-08
  2813.81    0.5392E-05    0.5391E-05    0.1257E-08
  2816.12    0.5415E-05    0.5414E-05    0.1263E-08
  2818.44    0.5437E-05    0.5436E-05    0.1269E-08
  2820.75    0.5460E-05    0.5459E-05    0.1275E-08
  2823.07    0.5483E-05    0.5482E-05    0.1282E-08
  2825.38    0.5507E-05    0.5505E-05    0.1288E-08
  2827.70    0.5530E-05    0.5529E-05    0.1295E-08
  2830.01    0.5554E-05    0.5552E-05    0.1301E-08
  2832.32    0.5578E-05    0.5576E-05    0.1307E-08
  2834.64    0.5602E-05    0.5600E-05    0.1314E-08
  2836.95    0.5626E-05    0.5625E-05    0.1321E-08
  2839.27    0.5651E-05    0.5649E-05    0.1327E-08
  2841.58    0.5675E-05    0.5674E-05    0.1334E-08
  2843.90    0.5700E-05    0.5699E-05    0.1341E-08
  2846.21    0.5726E-05    0.5724E-05    0.1348E-08
  2848.53    0.5751E-05    0.5750E-05    0.1355E-08
  2850.84    0.5777E-05    0.5776E-05    0.1362E-08
  2853.16    0.5803E-05    0.5802E-05    0.1369E-08
  2855.47    0.5829E-05    0.5828E-05    0.1376E-08
  2857.78    0.5856E-05    0.5854E-05    0.1383E-08
  2860.10    0.5882E-05    0.5881E-05    0.1390E-08
  2862.41    0.5909E-05    0.5908E-05    0.1397E-08
  2864.73    0.5937E-05    0.5935E-05    0.1405E-08
  2867.04    0.5964E-05    0.5963E-05    0.1412E-08
  2869.36    0.5992E-05    0.5990E-05    0.1419E-08
  2871.67    0.6020E-05    0.6018E-05    0.1427E-08
  2873.99    0.6048E-05    0.6047E-05    0.1435E-08
  2876.30    0.6077E-05    0.6075E-05    0.1442E-08
  2878.62    0.6105E-05    0.6104E-05    0.1450E-08
  2880.93    0.6134E-05    0.6133E-05    0.1458E-08
  2883.24    0.6164E-05    0.6162E-05    0.1466E-08
  2885.56    0.6193E-05    0.6192E-05    0.1473E-08
  2887.87    0.6223E-05    0.6222E-05    0.1481E-08
  2890.19    0.6253E-05    0.6252E-05    0.1490E-08
  2892.50    0.6284E-05    0.6282E-05    0.1498E-08
  2894.82    0.6315E-05    0.6313E-05    0.1506E-08
  2897.13    0.6346E-05    0.6344E-05    0.1514E-08
  2899.45    0.6377E-05    0.6376E-05    0.1522E-08
  2901.76    0.6409E-05    0.6407E-05    0.1531E-08
  2904.08    0.6441E-05    0.6439E-05    0.1539E-08
  2906.39    0.6473E-05    0.6471E-05    0.1548E-08
  2908.70    0.6506E-05    0.6504E-05    0.1557E-08
  2911.02    0.6538E-05    0.6537E-05    0.1565E-08
  2913.33    0.6572E-05    0.6570E-05    0.1574E-08
  2915.65    0.6605E-05    0.6604E-05    0.1583E-08
  2917.96    0.6639E-05    0.6637E-05    0.1592E-08
  2920.28    0.6673E-05    0.6672E-05    0.1601E-08
  2922.59    0.6708E-05    0.6706E-05    0.1610E-08
  2924.91    0.6743E-05    0.6741E-05    0.1619E-08
  2927.22    0.6778E-05    0.6776E-05    0.1629E-08
  2929.53    0.6813E-05    0.6812E-05    0.1638E-08
  2931.85    0.6849E-05    0.6847E-05    0.1648E-08
  2934.16    0.6885E-05    0.6884E-05    0.1657E-08
  2936.48    0.6922E-05    0.6920E-05    0.1667E-08
  2938.79    0.6959E-05    0.6957E-05    0.1677E-08
  2941.11    0.6996E-05    0.6994E-05    0.1686E-08
  2943.42    0.7034E-05    0.7032E-05    0.1696E-08
  2945.74    0.7072E-05    0.7070E-05    0.1706E-08
  2948.05    0.7110E-05    0.7108E-05    0.1717E-08
  2950.37    0.7149E-05    0.7147E-05    0.1727E-08
  2952.68    0.7188E-05    0.7186E-05    0.1737E-08
  2954.99    0.7228E-05    0.7226E-05    0.1747E-08
  2957.31    0.7268E-05    0.7266E-05    0.1758E-08
  2959.62    0.7308E-05    0.7306E-05    0.1769E-08
  2961.94    0.7349E-05    0.7347E-05    0.1779E-08
  2964.25    0.7390E-05    0.7388E-05    0.1790E-08
  2966.57    0.7431E-05    0.7430E-05    0.1801E-08
  2968.88    0.7473E-05    0.7472E-05    0.1812E-08
  2971.20    0.7516E-05    0.7514E-05    0.1823E-08
  2973.51    0.7559E-05    0.7557E-05    0.1834E-08
  2975.83    0.7602E-05    0.7600E-05    0.1846E-08
  2978.14    0.7646E-05    0.7644E-05    0.1857E-08
  2980.45    0.7690E-05    0.7688E-05    0.1869E-08
  2982.77    0.7735E-05    0.7733E-05    0.1880E-08
  2985.08    0.7780E-05    0.7778E-05    0.1892E-08
  2987.40    0.7825E-05    0.7823E-05    0.1904E-08
  2989.71    0.7871E-05    0.7869E-05    0.1916E-08
  2992.03    0.7918E-05    0.7916E-05    0.1928E-08
  2994.34    0.7965E-05    0.7963E-05    0.1941E-08
  2996.66    0.8012E-05    0.8010E-05    0.1953E-08
  2998.97    0.8060E-05    0.8058E-05    0.1966E-08
  3001.28    0.8108E-05    0.8106E-05    0.1978E-08
  3003.60    0.8157E-05    0.8155E-05    0.1991E-08
  3005.91    0.8207E-05    0.8205E-05    0.2004E-08
  3008.23    0.8257E-05    0.8255E-05    0.2017E-08
  3010.54    0.8307E-05    0.8305E-05    0.2030E-08
  3012.86    0.8358E-05    0.8356E-05    0.2043E-08
  3015.17    0.8410E-05    0.8408E-05    0.2057E-08
  3017.49    0.8462E-05    0.8460E-05    0.2070E-08
  3019.80    0.8515E-05    0.8513E-05    0.2084E-08
  3022.12    0.8568E-05    0.8566E-05    0.2098E-08
  3024.43    0.8622E-05    0.8620E-05    0.2112E-08
  3026.74    0.8676E-05    0.8674E-05    0.2126E-08
  3029.06    0.8731E-05    0.8729E-05    0.2140E-08
  3031.37    0.8787E-05    0.8785E-05    0.2155E-08
  3033.69    0.8843E-05    0.8841E-05    0.2169E-08
  3036.00    0.8900E-05    0.8898E-05    0.2184E-08
  3038.32    0.8957E-05    0.8955E-05    0.2199E-08
  3040.63    0.9015E-05    0.9013E-05    0.2214E-08
  3042.95    0.9074E-05    0.9072E-05    0.2229E-08
  3045.26    0.9133E-05    0.9131E-05    0.2245E-08
  3047.58    0.9193E-05    0.9191E-05    0.2260E-08
  3049.89    0.9254E-05    0.9251E-05    0.2276E-08
  3052.20    0.9315E-05    0.9313E-05    0.2292E-08
  3054.52    0.9377E-05    0.9375E-05    0.2308E-08
  3056.83    0.9440E-05    0.9437E-05    0.2324E-08
  3059.15    0.9503E-05    0.9501E-05    0.2341E-08
  3061.46    0.9567E-05    0.9565E-05    0.2357E-08
  3063.78    0.9632E-05    0.9629E-05    0.2374E-08
  3066.09    0.9697E-05    0.9695E-05    0.2391E-08
  3068.41    0.9764E-05    0.9761E-05    0.2408E-08
  3070.72    0.9831E-05    0.9828E-05    0.2426E-08
  3073.03    0.9898E-05    0.9896E-05    0.2443E-08
  3075.35    0.9967E-05    0.9965E-05    0.2461E-08
  3077.66    0.1004E-04    0.1003E-04    0.2479E-08
  3079.98    0.1011E-04    0.1010E-04    0.2497E-08
  3082.29    0.1018E-04    0.1017E-04    0.2516E-08
  3084.61    0.1025E-04    0.1025E-04    0.2534E-08
  3086.92    0.1032E-04    0.1032E-04    0.2553E-08
  3089.24    0.1040E-04    0.1039E-04    0.2572E-08
  3091.55    0.1047E-04    0.1047E-04    0.2591E-08
  3093.87    0.1054E-04    0.1054E-04    0.2611E-08
  3096.18    0.1062E-04    0.1062E-04    0.2630E-08
  3098.49    0.1070E-04    0.1070E-04    0.2650E-08
  3100.81    0.1078E-04    0.1077E-04    0.2670E-08
  3103.12    0.1085E-04    0.1085E-04    0.2691E-08
  3105.44    0.1093E-04    0.1093E-04    0.2711E-08
  3107.75    0.1102E-04    0.1101E-04    0.2732E-08
  3110.07    0.1110E-04    0.1109E-04    0.2753E-08
  3112.38    0.1118E-04    0.1118E-04    0.2775E-08
  3114.70    0.1126E-04    0.1126E-04    0.2796E-08
  3117.01    0.1135E-04    0.1135E-04    0.2818E-08
  3119.33    0.1143E-04    0.1143E-04    0.2840E-08
  3121.64    0.1152E-04    0.1152E-04    0.2863E-08
  3123.95    0.1161E-04    0.1161E-04    0.2885E-08
  3126.27    0.1170E-04    0.1169E-04    0.2908E-08
  3128.58    0.1179E-04    0.1178E-04    0.2931E-08
  3130.90    0.1188E-04    0.1188E-04    0.2955E-08
  3133.21    0.1197E-04    0.1197E-04    0.2979E-08
  3135.53    0.1206E-04    0.1206E-04    0.3003E-08
  3137.84    0.1216E-04    0.1216E-04    0.3027E-08
  3140.16    0.1225E-04    0.1225E-04    0.3052E-08
  3142.47    0.1235E-04    0.1235E-04    0.3077E-08
  3144.79    0.1245E-04    0.1245E-04    0.3102E-08
  3147.10    0.1255E-04    0.1255E-04    0.3128E-08
  3149.41    0.1265E-04    0.1265E-04    0.3154E-08
  3151.73    0.1275E-04    0.1275E-04    0.3180E-08
  3154.04    0.1286E-04    0.1285E-04    0.3207E-08
  3156.36    0.1296E-04    0.1296E-04    0.3234E-08
  3158.67    0.1307E-04    0.1306E-04    0.3261E-08
  3160.99    0.1317E-04    0.1317E-04    0.3289E-08
  3163.30    0.1328E-04    0.1328E-04    0.3317E-08
  3165.62    0.1339E-04    0.1339E-04    0.3345E-08
  3167.93    0.1351E-04    0.1350E-04    0.3374E-08
  3170.24    0.1362E-04    0.1362E-04    0.3403E-08
  3172.56    0.1373E-04    0.1373E-04    0.3433E-08
  3174.87    0.1385E-04    0.1385E-04    0.3463E-08
  3177.19    0.1397E-04    0.1397E-04    0.3493E-08
  3179.50    0.1409E-04    0.1408E-04    0.3524E-08
  3181.82    0.1421E-04    0.1421E-04    0.3555E-08
  3184.13    0.1433E-04    0.1433E-04    0.3587E-08
  3186.45    0.1446E-04    0.1445E-04    0.3619E-08
  3188.76    0.1458E-04    0.1458E-04    0.3652E-08
  3191.08    0.1471E-04    0.1471E-04    0.3684E-08
  3193.39    0.1484E-04    0.1484E-04    0.3718E-08
  3195.70    0.1497E-04    0.1497E-04    0.3752E-08
  3198.02    0.1511E-04    0.1510E-04    0.3786E-08
  3200.33    0.1524E-04    0.1524E-04    0.3821E-08
  3202.65    0.1538E-04    0.1538E-04    0.3856E-08
  3204.96    0.1552E-04    0.1551E-04    0.3892E-08
  3207.28    0.1566E-04    0.1566E-04    0.3928E-08
  3209.59    0.1580E-04    0.1580E-04    0.3965E-08
  3211.91    0.1595E-04    0.1594E-04    0.4003E-08
  3214.22    0.1610E-04    0.1609E-04    0.4040E-08
  3216.54    0.1625E-04    0.1624E-04    0.4079E-08
  3218.85    0.1640E-04    0.1639E-04    0.4118E-08
  3221.16    0.1655E-04    0.1655E-04    0.4158E-08
  3223.48    0.1671E-04    0.1670E-04    0.4198E-08
  3225.79    0.1687E-04    0.1686E-04    0.4239E-08
  3228.11    0.1703E-04    0.1702E-04    0.4280E-08
  3230.42    0.1719E-04    0.1719E-04    0.4322E-08
  3232.74    0.1736E-04    0.1735E-04    0.4365E-08
  3235.05    0.1752E-04    0.1752E-04    0.4408E-08
  3237.37    0.1770E-04    0.1769E-04    0.4452E-08
  3239.68    0.1787E-04    0.1786E-04    0.4496E-08
  3241.99    0.1805E-04    0.1804E-04    0.4542E-08
  3244.31    0.1822E-04    0.1822E-04    0.4588E-08
  3246.62    0.1841E-04    0.1840E-04    0.4634E-08
  3248.94    0.1859E-04    0.1859E-04    0.4682E-08
  3251.25    0.1878E-04    0.1877E-04    0.4730E-08
  3253.57    0.1897E-04    0.1896E-04    0.4779E-08
  3255.88    0.1916E-04    0.1916E-04    0.4829E-08
  3258.20    0.1936E-04    0.1935E-04    0.4879E-08
  3260.51    0.1956E-04    0.1955E-04    0.4930E-08
  3262.83    0.1976E-04    0.1976E-04    0.4983E-08
  3265.14    0.1997E-04    0.1996E-04    0.5036E-08
  3267.45    0.2018E-04    0.2017E-04    0.5089E-08
  3269.77    0.2039E-04    0.2039E-04    0.5144E-08
  3272.08    0.2061E-04    0.2060E-04    0.5200E-08
  3274.40    0.2083E-04    0.2082E-04    0.5256E-08
  3276.71    0.2105E-04    0.2105E-04    0.5314E-08
  3279.03    0.2128E-04    0.2127E-04    0.5372E-08
  3281.34    0.2151E-04    0.2151E-04    0.5432E-08
  3283.66    0.2175E-04    0.2174E-04    0.5492E-08
  3285.97    0.2199E-04    0.2198E-04    0.5554E-08
  3288.29    0.2223E-04    0.2222E-04    0.5616E-08
  3290.60    0.2248E-04    0.2247E-04    0.5680E-08
  3292.91    0.2273E-04    0.2272E-04    0.5744E-08
  3295.23    0.2298E-04    0.2298E-04    0.5810E-08
  3297.54    0.2325E-04    0.2324E-04    0.5877E-08
  3299.86    0.2351E-04    0.2351E-04    0.5945E-08
  3302.17    0.2378E-04    0.2378E-04    0.6015E-08
  3304.49    0.2406E-04    0.2405E-04    0.6085E-08
  3306.80    0.2434E-04    0.2433E-04    0.6157E-08
  3309.12    0.2462E-04    0.2461E-04    0.6231E-08
  3311.43    0.2491E-04    0.2490E-04    0.6305E-08
  3313.74    0.2521E-04    0.2520E-04    0.6381E-08
  3316.06    0.2551E-04    0.2550E-04    0.6458E-08
  3318.37    0.2581E-04    0.2581E-04    0.6537E-08
  3320.69    0.2613E-04    0.2612E-04    0.6617E-08
  3323.00    0.2644E-04    0.2644E-04    0.6699E-08
  3325.32    0.2677E-04    0.2676E-04    0.6782E-08
  3327.63    0.2710E-04    0.2709E-04    0.6867E-08
  3329.95    0.2744E-04    0.2743E-04    0.6953E-08
  3332.26    0.2778E-04    0.2777E-04    0.7041E-08
  3334.58    0.2813E-04    0.2812E-04    0.7131E-08
  3336.89    0.2848E-04    0.2848E-04    0.7223E-08
  3339.20    0.2885E-04    0.2884E-04    0.7316E-08
  3341.52    0.2922E-04    0.2921E-04    0.7411E-08
  3343.83    0.2960E-04    0.2959E-04    0.7509E-08
  3346.15    0.2998E-04    0.2997E-04    0.7608E-08
  3348.46    0.3038E-04    0.3037E-04    0.7709E-08
  3350.78    0.3078E-04    0.3077E-04    0.7812E-08
  3353.09    0.3119E-04    0.3118E-04    0.7917E-08
  3355.41    0.3160E-04    0.3160E-04    0.8024E-08
  3357.72    0.3203E-04    0.3202E-04    0.8134E-08
  3360.04    0.3247E-04    0.3246E-04    0.8246E-08
  3362.35    0.3291E-04    0.3290E-04    0.8360E-08
  3364.66    0.3337E-04    0.3336E-04    0.8477E-08
  3366.98    0.3383E-04    0.3382E-04    0.8596E-08
  3369.29    0.3430E-04    0.3430E-04    0.8718E-08
  3371.61    0.3479E-04    0.3478E-04    0.8842E-08
  3373.92    0.3528E-04    0.3527E-04    0.8970E-08
  3376.24    0.3579E-04    0.3578E-04    0.9100E-08
  3378.55    0.3631E-04    0.3630E-04    0.9232E-08
  3380.87    0.3683E-04    0.3683E-04    0.9368E-08
  3383.18    0.3737E-04    0.3737E-04    0.9507E-08
  3385.50    0.3793E-04    0.3792E-04    0.9649E-08
  3387.81    0.3849E-04    0.3848E-04    0.9794E-08
  3390.12    0.3907E-04    0.3906E-04    0.9943E-08
  3392.44    0.3966E-04    0.3965E-04    0.1010E-07
  3394.75    0.4027E-04    0.4026E-04    0.1025E-07
  3397.07    0.4089E-04    0.4088E-04    0.1041E-07
  3399.38    0.4152E-04    0.4151E-04    0.1057E-07
  3401.70    0.4217E-04    0.4216E-04    0.1074E-07
  3404.01    0.4284E-04    0.4283E-04    0.1091E-07
  3406.33    0.4352E-04    0.4351E-04    0.1109E-07
  3408.64    0.4422E-04    0.4421E-04    0.1127E-07
  3410.95    0.4493E-04    0.4492E-04    0.1145E-07
  3413.27    0.4567E-04    0.4566E-04    0.1164E-07
  3415.58    0.4642E-04    0.4641E-04    0.1183E-07
  3417.90    0.4719E-04    0.4718E-04    0.1203E-07
  3420.21    0.4798E-04    0.4797E-04    0.1223E-07
  3422.53    0.4879E-04    0.4878E-04    0.1244E-07
  3424.84    0.4963E-04    0.4961E-04    0.1266E-07
  3427.16    0.5048E-04    0.5047E-04    0.1288E-07
  3429.47    0.5136E-04    0.5135E-04    0.1310E-07
  3431.79    0.5226E-04    0.5225E-04    0.1334E-07
  3434.10    0.5319E-04    0.5317E-04    0.1357E-07
  3436.41    0.5414E-04    0.5412E-04    0.1382E-07
  3438.73    0.5512E-04    0.5510E-04    0.1407E-07
  3441.04    0.5612E-04    0.5611E-04    0.1433E-07
  3443.36    0.5715E-04    0.5714E-04    0.1459E-07
  3445.67    0.5822E-04    0.5820E-04    0.1487E-07
  3447.99    0.5931E-04    0.5929E-04    0.1515E-07
  3450.30    0.6043E-04    0.6042E-04    0.1544E-07
  3452.62    0.6159E-04    0.6158E-04    0.1574E-07
  3454.93    0.6278E-04    0.6277E-04    0.1604E-07
  3457.25    0.6401E-04    0.6400E-04    0.1636E-07
  3459.56    0.6528E-04    0.6526E-04    0.1669E-07
  3461.87    0.6658E-04    0.6656E-04    0.1702E-07
  3464.19    0.6793E-04    0.6791E-04    0.1737E-07
  3466.50    0.6931E-04    0.6929E-04    0.1772E-07
  3468.82    0.7074E-04    0.7072E-04    0.1809E-07
  3471.13    0.7222E-04    0.7220E-04    0.1847E-07
  3473.45    0.7374E-04    0.7372E-04    0.1887E-07
  3475.76    0.7531E-04    0.7530E-04    0.1927E-07
  3478.08    0.7694E-04    0.7692E-04    0.1969E-07
  3480.39    0.7862E-04    0.7860E-04    0.2012E-07
  3482.70    0.8036E-04    0.8034E-04    0.2057E-07
  3485.02    0.8215E-04    0.8213E-04    0.2103E-07
  3487.33    0.8401E-04    0.8399E-04    0.2151E-07
  3489.65    0.8593E-04    0.8591E-04    0.2201E-07
  3491.96    0.8792E-04    0.8790E-04    0.2252E-07
  3494.28    0.8999E-04    0.8997E-04    0.2305E-07
  3496.59    0.9213E-04    0.9210E-04    0.2360E-07
  3498.91    0.9434E-04    0.9432E-04    0.2418E-07
  3501.22    0.9664E-04    0.9662E-04    0.2477E-07
  3503.54    0.9903E-04    0.9901E-04    0.2539E-07
  3505.85    0.1015E-03    0.1015E-03    0.2603E-07
  3508.16    0.1041E-03    0.1041E-03    0.2669E-07
  3510.48    0.1068E-03    0.1067E-03    0.2738E-07
  3512.79    0.1095E-03    0.1095E-03    0.2810E-07
  3515.11    0.1124E-03    0.1124E-03    0.2885E-07
  3517.42    0.1155E-03    0.1154E-03    0.2963E-07
  3519.74    0.1186E-03    0.1186E-03    0.3044E-07
  3522.05    0.1219E-03    0.1218E-03    0.3128E-07
  3524.37    0.1253E-03    0.1253E-03    0.3216E-07
  3526.68    0.1289E-03    0.1288E-03    0.3308E-07
  3529.00    0.1326E-03    0.1325E-03    0.3405E-07
  3531.31    0.1365E-03    0.1364E-03    0.3505E-07
  3533.62    0.1405E-03    0.1405E-03    0.3610E-07
  3535.94    0.1448E-03    0.1448E-03    0.3720E-07
  3538.25    0.1493E-03    0.1492E-03    0.3836E-07
  3540.57    0.1539E-03    0.1539E-03    0.3956E-07
  3542.88    0.1588E-03    0.1588E-03    0.4083E-07
  3545.20    0.1640E-03    0.1639E-03    0.4216E-07
  3547.51    0.1694E-03    0.1693E-03    0.4356E-07
  3549.83    0.1751E-03    0.1750E-03    0.4503E-07
  3552.14    0.1811E-03    0.1810E-03    0.4658E-07
  3554.45    0.1874E-03    0.1873E-03    0.4821E-07
  3556.77    0.1940E-03    0.1940E-03    0.4992E-07
  3559.08    0.2010E-03    0.2010E-03    0.5174E-07
  3561.40    0.2084E-03    0.2084E-03    0.5366E-07
  3563.71    0.2163E-03    0.2162E-03    0.5569E-07
  3566.03    0.2246E-03    0.2245E-03    0.5784E-07
  3568.34    0.2334E-03    0.2333E-03    0.6011E-07
  3570.66    0.2427E-03    0.2427E-03    0.6253E-07
  3572.97    0.2527E-03    0.2526E-03    0.6510E-07
  3575.29    0.2632E-03    0.2632E-03    0.6784E-07
  3577.60    0.2745E-03    0.2744E-03    0.7076E-07
  3579.91    0.2865E-03    0.2864E-03    0.7387E-07
  3582.23    0.2994E-03    0.2993E-03    0.7720E-07
  3584.54    0.3131E-03    0.3130E-03    0.8076E-07
  3586.86    0.3279E-03    0.3278E-03    0.8459E-07
  3589.17    0.3437E-03    0.3436E-03    0.8869E-07
  3591.49    0.3608E-03    0.3607E-03    0.9311E-07
  3593.80    0.3791E-03    0.3790E-03    0.9787E-07
  3596.12    0.3990E-03    0.3989E-03    0.1030E-06
  3598.43    0.4205E-03    0.4204E-03    0.1086E-06
  3600.75    0.4438E-03    0.4437E-03    0.1146E-06
  3603.06    0.4692E-03    0.4691E-03    0.1212E-06
  3605.37    0.4968E-03    0.4967E-03    0.1284E-06
  3607.69    0.5271E-03    0.5269E-03    0.1362E-06
  3610.00    0.5602E-03    0.5600E-03    0.1448E-06
  3612.32    0.5966E-03    0.5964E-03    0.1543E-06
  3614.63    0.6367E-03    0.6366E-03    0.1647E-06
  3616.95    0.6812E-03    0.6810E-03    0.1762E-06
  3619.26    0.7305E-03    0.7303E-03    0.1890E-06
  3621.58    0.7855E-03    0.7853E-03    0.2033E-06
  3623.89    0.8470E-03    0.8468E-03    0.2193E-06
  3626.20    0.9162E-03    0.9160E-03    0.2373E-06
  3628.52    0.9943E-03    0.9941E-03    0.2576E-06
  3630.83    0.1083E-02    0.1083E-02    0.2806E-06
  3633.15    0.1184E-02    0.1184E-02    0.3069E-06
  3635.46    0.1300E-02    0.1300E-02    0.3370E-06
  3637.78    0.1434E-02    0.1434E-02    0.3719E-06
  3640.09    0.1590E-02    0.1590E-02    0.4125E-06
  3642.41    0.1773E-02    0.1773E-02    0.4600E-06
  3644.72    0.1989E-02    0.1989E-02    0.5162E-06
  3647.04    0.2247E-02    0.2247E-02    0.5832E-06
  3649.35    0.2557E-02    0.2557E-02    0.6638E-06
  3651.66    0.2935E-02    0.2934E-02    0.7619E-06
  3653.98    0.3399E-02    0.3398E-02    0.8827E-06
  3656.29    0.3978E-02    0.3977E-02    0.1033E-05
  3658.61    0.4708E-02    0.4706E-02    0.1223E-05
  3660.92    0.5641E-02    0.5640E-02    0.1466E-05
  3663.24    0.6849E-02    0.6848E-02    0.1780E-05
  3665.55    0.8429E-02    0.8427E-02    0.2191E-05
  3667.87    0.1050E-01    0.1050E-01    0.2730E-05
  3670.18    0.1320E-01    0.1319E-01    0.3431E-05
  3672.50    0.1657E-01    0.1656E-01    0.4308E-05
  3674.81    0.2043E-01    0.2042E-01    0.5312E-05
  3677.12    0.2403E-01    0.2403E-01    0.6250E-05
  3679.44    0.2609E-01    0.2609E-01    0.6785E-05
  3681.75    0.2557E-01    0.2556E-01    0.6649E-05
  3684.07    0.2275E-01    0.2274E-01    0.5915E-05
  3686.38    0.1892E-01    0.1892E-01    0.4920E-05
  3688.70    0.1521E-01    0.1521E-01    0.3955E-05
  3691.01    0.1211E-01    0.1211E-01    0.3148E-05
  3693.33    0.9685E-02    0.9682E-02    0.2516E-05
  3695.64    0.7831E-02    0.7829E-02    0.2034E-05
  3697.96    0.6421E-02    0.6419E-02    0.1667E-05
  3700.27    0.5341E-02    0.5340E-02    0.1386E-05
  3702.58    0.4507E-02    0.4506E-02    0.1169E-05
  3704.90    0.3854E-02    0.3853E-02    0.9986E-06
  3707.21    0.3338E-02    0.3337E-02    0.8640E-06
  3709.53    0.2926E-02    0.2925E-02    0.7564E-06
  3711.84    0.2592E-02    0.2592E-02    0.6695E-06
  3714.16    0.2322E-02    0.2321E-02    0.5987E-06
  3716.47    0.2100E-02    0.2099E-02    0.5407E-06
  3718.79    0.1918E-02    0.1918E-02    0.4930E-06
  3721.10    0.1769E-02    0.1768E-02    0.4536E-06
  3723.41    0.1646E-02    0.1646E-02    0.4213E-06
  3725.73    0.1547E-02    0.1546E-02    0.3949E-06
  3728.04    0.1467E-02    0.1466E-02    0.3735E-06
  3730.36    0.1404E-02    0.1404E-02    0.3566E-06
  3732.67    0.1358E-02    0.1358E-02    0.3437E-06
  3734.99    0.1326E-02    0.1326E-02    0.3346E-06
  3737.30    0.1309E-02    0.1309E-02    0.3291E-06
  3739.62    0.1306E-02    0.1306E-02    0.3272E-06
  3741.93    0.1318E-02    0.1318E-02    0.3289E-06
  3744.25    0.1346E-02    0.1345E-02    0.3345E-06
  3746.56    0.1391E-02    0.1390E-02    0.3444E-06
  3748.87    0.1456E-02    0.1456E-02    0.3592E-06
  3751.19    0.1545E-02    0.1545E-02    0.3797E-06
  3753.50    0.1663E-02    0.1662E-02    0.4071E-06
  3755.82    0.1816E-02    0.1815E-02    0.4431E-06
  3758.13    0.2014E-02    0.2013E-02    0.4898E-06
  3760.45    0.2270E-02    0.2270E-02    0.5505E-06
  3762.76    0.2603E-02    0.2603E-02    0.6296E-06
  3765.08    0.3038E-02    0.3038E-02    0.7330E-06
  3767.39    0.3611E-02    0.3610E-02    0.8694E-06
  3769.71    0.4368E-02    0.4367E-02    0.1050E-05
  3772.02    0.5368E-02    0.5366E-02    0.1288E-05
  3774.33    0.6666E-02    0.6664E-02    0.1598E-05
  3776.65    0.8273E-02    0.8271E-02    0.1981E-05
  3778.96    0.1005E-01    0.1005E-01    0.2406E-05
  3781.28    0.1160E-01    0.1160E-01    0.2775E-05
  3783.59    0.1229E-01    0.1229E-01    0.2939E-05
  3785.91    0.1176E-01    0.1175E-01    0.2812E-05
  3788.22    0.1028E-01    0.1028E-01    0.2459E-05
  3790.54    0.8479E-02    0.8477E-02    0.2029E-05
  3792.85    0.6809E-02    0.6807E-02    0.1630E-05
  3795.16    0.5439E-02    0.5437E-02    0.1303E-05
  3797.48    0.4373E-02    0.4372E-02    0.1048E-05
  3799.79    0.3559E-02    0.3558E-02    0.8536E-06
  3802.11    0.2936E-02    0.2936E-02    0.7048E-06
  3804.42    0.2457E-02    0.2456E-02    0.5901E-06
  3806.74    0.2082E-02    0.2082E-02    0.5006E-06
  3809.05    0.1787E-02    0.1786E-02    0.4299E-06
  3811.37    0.1550E-02    0.1549E-02    0.3732E-06
  3813.68    0.1357E-02    0.1357E-02    0.3272E-06
  3816.00    0.1199E-02    0.1199E-02    0.2893E-06
  3818.31    0.1068E-02    0.1068E-02    0.2579E-06
  3820.62    0.9582E-03    0.9579E-03    0.2316E-06
  3822.94    0.8650E-03    0.8648E-03    0.2092E-06
  3825.25    0.7854E-03    0.7852E-03    0.1901E-06
  3827.57    0.7168E-03    0.7167E-03    0.1737E-06
  3829.88    0.6574E-03    0.6572E-03    0.1594E-06
  3832.20    0.6055E-03    0.6053E-03    0.1469E-06
  3834.51    0.5598E-03    0.5597E-03    0.1360E-06
  3836.83    0.5195E-03    0.5194E-03    0.1263E-06
  3839.14    0.4837E-03    0.4836E-03    0.1177E-06
  3841.46    0.4517E-03    0.4516E-03    0.1100E-06
  3843.77    0.4230E-03    0.4229E-03    0.1031E-06
  3846.08    0.3972E-03    0.3971E-03    0.9683E-07
